						 																																																																																																																																																																																																																																																								
Table 8.1.																																																																																																																																																																																																																																																														
Absorptivities (L mmol-1. cm- 1) of various derivatives of adult human haemoglobin																																																																																																																																																																																																																																																														
																																																																																																																																																																																																																																																														
l (nm)	?HHb	?02Hb	?COHb	?Hi	?HiCN	?SHb																																																																																																																																																																																																																																																								
	N=6	N=6	N=8	N =15	N= ll	N=6																																																																																																																																																																																																																																																								
																																																																																																																																																																																																																																																														
450	13.48	16.20	10.07	9.799	20.78	13.23																																																																																																																																																																																																																																																								
452	10.58	14.90	   9.379	9.422	19.41	11.96																																																																																																																																																																																																																																																								
454	   8.520	13.80	   8.809	9.127	18.09	10:90																																																																																																																																																																																																																																																								
456	  7.022	12.81	   8.311	8.874	16.79	10.08																																																																																																																																																																																																																																																								
458	  5.932	11.96	   7.897	8.676	15.58	9.37																																																																																																																																																																																																																																																								
460	  5.131	11.17	   7.529	8.495	14.45	8.80																																																																																																																																																																																																																																																								
462	  4.552	10.50	   7.217	8.351	13.47	8.27																																																																																																																																																																																																																																																								
464	  4.120	   9.875	   6.933	8.211	12.60	7.87																																																																																																																																																																																																																																																								
466	  3.813	   9.333	   6.690	8.108	11.89	7.51																																																																																																																																																																																																																																																								
468	  3.602	   8.834	   6.469	8.008	11.28	7.22
470	  3.457	   8.399	   6.275	7.954	10.79	6:93
472	  3.366	   7.993	   6.097	7.907	10.38	6.72
474	  3.318	   7.637	   5.952	7.912	10.06	6.54
476	  3.297	   7.303	   5.816	7.934	   9.760	6.41
478	  3.302	   7.002	   5.710	7.999	   9.511	6.28
480	  3.322	   6.722	   5.615	8.074	   9.256	6.20
482	  3.353	   6.482	   5.542	8.193	   9.015	6.15
484	  3.405	   6.256	   5.466	8.304	   8.746	6.12
486	  3.465	   6.073	   5.403	8.447	   8.481	6.12
488	  3.538	   5.888	   5.339	8.569	   8.197	6.15
490	  3.633	   5.741	   5.292	8.716	   7.929	6.17
492	  3.736	   5.595	   5.252	8.828	   7.669	6.22
494	  3.861	   5.473	   5.235	8.947	   7.451 	6.28
496	  3.998	   5.353	   5.225	9.018	   7.253	6.35
498	  4.158	   5.254	   5.242	9.088	   7.113	6.43
500	  4.330	   5.154	   5.279	9.106	   7.008	6.50
502	  4.525	   5.070	   5.345	9.098	   6.962	6.59
504	  4.727	   4.984	   5.429	9.031	   6.954	6.66
506	  4.948	   4.927	   5.562	8.949	   7.011	6.74
508	  5.160	   4.882 	   5.723	8.813	   7.104	6.78
510	  5.383	   4.878	   5.940	8.674	   7.269	6.82
512	  5.593	   4.921	   6.225	8.492	   7.467	6.83
514	  5.816	   5.042	   6.596	8.317	   7.730	6.81
516	  6.025	   5.235	   7.056	8.119	   8.025	6.76
518	  6.249	   5.548	   7.634	7.929	   8.373	6.68
520	  6.478	   5.981	   8.297	7.732	   8.733	6.56
522	  6.737	   6.579	   9.050	7.549	   9.125	6.42
524	  7.011	   7.320	   9.850	7.366	   9.505	6.28
526	  7.317	   8.230	10.69	7.214	   9.880	6.11
528	  7.644	9.250	11.50	7.067	10.20	5.95
530	8.010	10.35	12.29	6.944	10.48	5.74
532	8.411	11.42	12.99	6.826	10.69	5.65
534	8.866	12.40	13.61	6.728	10.84	5.56
536	9.355	13.22	14.05	6.611	10.94	5.54
538	9.901	13.90	14.30	6.496	11.02	5.54
540	10.47	14.32	14.27	6.344	11.05	5.62
542	11.06	14.52	14.04	6.170	11.08	5.69
544	11.62	14.34	13.59	5.948	11.06	5.90
546	12.15	13.83	13.08	5.709	11.03	6.09
548	12.59	12.99	12.55	5.437	10.94	6.31
550	12.96	12.01	12.11	5.161	10.82	6.57
552	13.21	11.02	11.78	4.895	10.63	6.74
554	13.35	10.17	11.63	4.659	10.41	6.90
556	13.36	   9.482	11.65	4.457	10.14	6.98
558	13.29	    9.015	11.87	4.297	   9.854	7.02
560	13.11	    8.767	12.25	4.176	   9.544	7.03
562	12.88	    8.769	12.80	4.094	   9.243	7.00
564	12.59	    9.042	13.43	4.043	   8.931	6.95
566	12.25	    9.614	14.04	4.019	   8.629	6.84
568	11.85	10.50	14.43	4.009	   8.323	6.69
570	11.42	11.68	14.46	4.010	   8.013	6.43
572	10.96	13.05	13.99	4.010	   7.692	6.10
574	10.49	14.37	13.07	4.011	   7.355	5.80
576	10.02	15.26	11.76	4.004	   7.005	5.62
578	  9.564	15.36	10.24	3.986	   6.638	5.68
580	  9.141	14.42	   8.638	3.954	   6.266	5.95
582	  8.734	12.60	   7.089	3.900	   5.889	6.41
584	  8.333	10.28	   5.710	3.829	   5.517	6.93
586	   7.903	   7.938	    4.550	3.744	   5.156	7.33
588	   7.422	   5.887	   3.618	3.652	4.803	7.59
590	   6.875	   4.262	   2.891	3.557	4.456	7.94
592	   6.271	   3.062	2.330	3.468	"4,116"	8.12
594	5.629	   2.216	"1,899"	3.386	3.780	8.37
596	4.976	   1.634	"1,567"	3.319	   3.451	8.65
598	4.342	   1.234	1.307	3.264	   3.132	8.97
600	3.759	   0.961	1.104	3.226	   2.828	9.37
602	3.242	   0.767	0.939	3.200	   2.539	9.88
604	2.806	   0.625	0.806	3.187	   2.271	10.54
606	2.452	   0.519	0.697	3.185	2.027	11.41
608	2.169		0.607	3.194	1.807	12.49
610	1.946		0.530	3.215	1.611	13.81
612	1.768		0.466	3.250	1.439	15.29
614	1.627			3.302	1.289	16.92
616	1.514			3.375	1.164	18.52
618	1.418			3.458	1.053	19.94
620	1.336			3.549	0.953	20.91
622	1.270			3.643	0.860	21.21
624	1.212			3.730	0.783	20.73
626	1.163			3.806	0.717	19.47
628	1.120			3.862	0.658	17.54	
630	1.082			3.895	0.606	15.28	

l  =450-630nm. Standard procedure;HP8450A.							
Absorbance measured with 1= 0.010-0.016cm. N is number of specimens. 							
Na2S2O4 use to prevent reoxygenation of HHb. pH range (Hi) = 7.14-7.30.							


							
							
							
							
							
							
							
							
						
						
						
						
						
						
						
						
						
						
						
						
						
						
						
						
						
						
						
						
						
						
						
						
						
						
						
						
						
						
						
						
						
						
						
						
						
						
						
						
						
						
						
						
						
						
						
						
						
						
						
						
						
						
						
						
						
						
						
						
						
